# Energy[eV]	Flux[ph/s/100mA]	Power[W/100mA]	Resolution	Resolution_Filtered	Harmonic
2.056000E+04 6.420026E+12 2.114795E-02 2.165524E-04 2.178650E-04 1.000000E+00
6.168000E+04 6.391101E+08 6.315817E-06 1.915065E-04 1.897986E-04 3.000000E+00
8.224000E+04 2.010962E+07 2.649696E-07 1.857793E-04 1.822019E-04 4.000000E+00
1.028000E+05 3.478738E+05 5.729611E-09 1.690507E-04 1.766330E-04 5.000000E+00
1.439200E+05 3.419045E+02 7.883799E-12 1.361816E-04 1.770614E-04 7.000000E+00
1.644800E+05 1.567040E+01 4.129562E-13 1.385756E-04 1.932345E-04 8.000000E+00
1.850400E+05 3.942142E-01 1.168719E-14 1.518428E-04 1.788609E-04 9.000000E+00
