# Energy[eV]	Flux[ph/s/100mA]	Power[W/100mA]	Resolution	Resolution_Filtered	Harmonic
2.056000E+04 7.148329E+12 2.354704E-02 2.146960E-04 2.173024E-04 1.000000E+00
6.168000E+04 1.236384E+09 1.221821E-05 1.807093E-04 1.851498E-04 3.000000E+00
8.224000E+04 4.044850E+07 5.329604E-07 1.799613E-04 1.837176E-04 4.000000E+00
1.028000E+05 7.139895E+05 1.175964E-08 1.676355E-04 1.811225E-04 5.000000E+00
1.439200E+05 6.026355E+02 1.389583E-11 1.116202E-04 1.708090E-04 7.000000E+00
1.644800E+05 2.579532E+01 6.797708E-13 1.250439E-04 1.685338E-04 8.000000E+00
1.850400E+05 6.445821E-01 1.910960E-14 6.222098E-05 1.819313E-04 9.000000E+00
