# Energy[eV]	Flux[ph/s/100mA]	Power[W/100mA]	Resolution	Resolution_Filtered	Harmonic
9.550286E+03 3.300052E+12 5.050103E-03 1.531806E-04 1.555810E-04 1.000000E+00
2.865086E+04 1.895937E+09 8.703171E-06 1.041337E-04 1.057684E-04 3.000000E+00
3.820114E+04 1.383698E+08 8.468976E-07 1.040266E-04 1.053751E-04 4.000000E+00
4.775143E+04 5.248677E+06 4.015581E-08 9.550136E-05 1.033532E-04 5.000000E+00
6.685200E+04 2.602061E+04 2.787039E-10 7.891493E-05 1.011356E-04 7.000000E+00
7.640229E+04 2.837273E+03 3.473107E-11 8.771679E-05 9.749846E-05 8.000000E+00
8.595258E+04 1.622847E+02 2.234839E-12 7.999630E-05 9.458609E-05 9.000000E+00
